output wavelengths (m)
  76.923E-6
  26.667E-6
  17.699E-6
  15.038E-6
  13.158E-6
  11.111E-6
   9.709E-6
   8.850E-6
   7.782E-6
   6.969E-6
   6.098E-6
   5.155E-6
   4.619E-6
   4.320E-6
   4.016E-6
   3.571E-6
   3.419E-6
   2.759E-6
   2.312E-6
   2.041E-6
   1.770E-6
   1.444E-6
   1.270E-6
   0.957E-6
   0.693E-6
   0.517E-6
   0.387E-6
   0.299E-6
   0.227E-6
   5.848E-6
   0.330E-6
   0.340E-6
   0.355E-6
   0.380E-6
   0.400E-6
   0.440E-6
   0.450E-6
   0.469E-6
   0.500E-6
   0.532E-6
   0.550E-6
   0.645E-6
   0.670E-6
   0.760E-6
   0.800E-6
   0.858E-6
   0.865E-6
   1.020E-6
   1.064E-6
   1.240E-6
   1.640E-6
   2.130E-6
  10.000E-6
